# ave_BX_lowred[768][real]: Average spectrum of 117 objects
1100.  0.549889
1101.5  0.5750453
1103.  0.5064622
1104.5  0.4797396
1106.  0.463575
1107.5  0.3041413
1109.  0.3057315
1110.5  0.4884082
1112.  0.365424
1113.5  0.3363155
1115.  0.5840361
1116.5  0.5138581
1118.  0.3456075
1119.5  0.2436111
1121.  0.2444518
1122.5  0.3191949
1124.  0.3671076
1125.5  0.4823183
1127.  0.6030326
1128.5  0.38154
1130.  0.5405072
1131.5  0.5440304
1133.  0.5032938
1134.5  0.5699849
1136.  0.5080962
1137.5  0.4849533
1139.  0.4607298
1140.5  0.6297502
1142.  0.6770852
1143.5  0.5603744
1145.  0.5746419
1146.5  0.583316
1148.  0.7250569
1149.5  0.6074702
1151.  0.5902851
1152.5  0.6838286
1154.  0.7440224
1155.5  0.7229186
1157.  0.7085542
1158.5  0.5952149
1160.  0.531521
1161.5  0.5759687
1163.  0.6370007
1164.5  0.6744576
1166.  0.718658
1167.5  0.6591108
1169.  0.6405333
1170.5  0.6796244
1172.  0.6405057
1173.5  0.5138763
1175.  0.5430062
1176.5  0.5981776
1178.  0.7174711
1179.5  0.7579399
1181.  0.7780983
1182.5  0.7012926
1184.  0.6529008
1185.5  0.6562448
1187.  0.6857647
1188.5  0.5914117
1190.  0.5241522
1191.5  0.4795303
1193.  0.537303
1194.5  0.6615913
1196.  0.6704881
1197.5  0.6136644
1199.  0.5981213
1200.5  0.5428502
1202.  0.4687293
1203.5  0.4627999
1205.  0.2830174
1206.5  0.2140474
1208.  0.3103077
1209.5  0.3536296
1211.  0.4114916
1212.5  0.42186
1214.  0.5672496
1215.5  0.5553504
1217.  0.4690887
1218.5  0.5494337
1220.  0.6429309
1221.5  0.6073278
1223.  0.5629793
1224.5  0.6308528
1226.  0.6226389
1227.5  0.6247342
1229.  0.6727789
1230.5  0.7342555
1232.  0.7762398
1233.5  0.7840496
1235.  0.804746
1236.5  0.8506502
1238.  0.9108204
1239.5  0.8729821
1241.  0.9341894
1242.5  0.9356108
1244.  0.9549765
1245.5  1.043183
1247.  1.059064
1248.5  1.011405
1250.  0.9984252
1251.5  0.9191403
1253.  0.8941337
1254.5  0.8611897
1256.  0.8895897
1257.5  0.8129931
1259.  0.6448229
1260.5  0.6339643
1262.  0.7590947
1263.5  0.9516962
1265.  1.022049
1266.5  1.111964
1268.  1.138549
1269.5  1.155508
1271.  1.157926
1272.5  1.07846
1274.  1.016984
1275.5  1.02235
1277.  0.9792958
1278.5  1.097487
1280.  1.08765
1281.5  1.134539
1283.  1.204025
1284.5  1.193656
1286.  1.169433
1287.5  1.111511
1289.  1.095266
1290.5  1.061218
1292.  1.111045
1293.5  1.061913
1295.  1.016031
1296.5  1.0053
1298.  0.9114521
1299.5  0.8191558
1301.  0.746349
1302.5  0.6372355
1304.  0.6341528
1305.5  0.8086497
1307.  0.9699186
1308.5  1.070163
1310.  1.161574
1311.5  1.213105
1313.  1.236037
1314.5  1.225775
1316.  1.189824
1317.5  1.137902
1319.  1.124604
1320.5  1.143937
1322.  1.195422
1323.5  1.174917
1325.  1.143968
1326.5  1.155761
1328.  1.112379
1329.5  1.060453
1331.  1.003856
1332.5  0.9092543
1334.  0.8174774
1335.5  0.7899313
1337.  0.8690732
1338.5  0.9889089
1340.  1.043985
1341.5  1.110472
1343.  1.145774
1344.5  1.107556
1346.  1.088212
1347.5  1.147398
1349.  1.211518
1350.5  1.18875
1352.  1.157655
1353.5  1.182483
1355.  1.177079
1356.5  1.17662
1358.  1.188246
1359.5  1.197238
1361.  1.187376
1362.5  1.139206
1364.  1.129512
1365.5  1.121303
1367.  1.126059
1368.5  1.127546
1370.  1.149228
1371.5  1.145625
1373.  1.176112
1374.5  1.174693
1376.  1.124734
1377.5  1.14168
1379.  1.142045
1380.5  1.161595
1382.  1.125587
1383.5  1.092006
1385.  1.106112
1386.5  1.091328
1388.  1.019002
1389.5  0.963882
1391.  0.9172474
1392.5  0.8431723
1394.  0.7804488
1395.5  0.8188881
1397.  0.9072019
1398.5  0.9614884
1400.  0.9944798
1401.5  0.945465
1403.  0.9549727
1404.5  1.032249
1406.  1.086663
1407.5  1.110777
1409.  1.137181
1410.5  1.133286
1412.  1.125331
1413.5  1.143786
1415.  1.175092
1416.5  1.168538
1418.  1.139737
1419.5  1.126951
1421.  1.148455
1422.5  1.153045
1424.  1.164316
1425.5  1.166485
1427.  1.14836
1428.5  1.132854
1430.  1.150091
1431.5  1.163741
1433.  1.128042
1434.5  1.150071
1436.  1.160156
1437.5  1.127059
1439.  1.139422
1440.5  1.184287
1442.  1.194494
1443.5  1.192393
1445.  1.207756
1446.5  1.217368
1448.  1.229435
1449.5  1.209819
1451.  1.177786
1452.5  1.16295
1454.  1.156703
1455.5  1.160254
1457.  1.150684
1458.5  1.167683
1460.  1.188197
1461.5  1.177382
1463.  1.162821
1464.5  1.162737
1466.  1.192849
1467.5  1.185135
1469.  1.151602
1470.5  1.159199
1472.  1.161472
1473.5  1.146233
1475.  1.170736
1476.5  1.189314
1478.  1.171794
1479.5  1.174854
1481.  1.157912
1482.5  1.160235
1484.  1.16571
1485.5  1.180485
1487.  1.188848
1488.5  1.197901
1490.  1.215333
1491.5  1.244375
1493.  1.213652
1494.5  1.158143
1496.  1.14149
1497.5  1.134337
1499.  1.1177
1500.5  1.118495
1502.  1.084081
1503.5  1.078127
1505.  1.137774
1506.5  1.166376
1508.  1.168103
1509.5  1.175602
1511.  1.169266
1512.5  1.147935
1514.  1.135931
1515.5  1.128598
1517.  1.13751
1518.5  1.153123
1520.  1.148079
1521.5  1.127015
1523.  1.034634
1524.5  0.9169185
1526.  0.8194705
1527.5  0.805229
1529.  0.8763237
1530.5  0.9867762
1532.  1.076327
1533.5  1.101878
1535.  1.080737
1536.5  1.03233
1538.  1.005433
1539.5  0.96048
1541.  0.9127361
1542.5  0.8752699
1544.  0.8012632
1545.5  0.7331987
1547.  0.6603186
1548.5  0.6432301
1550.  0.7094888
1551.5  0.8425736
1553.  0.9753761
1554.5  1.080043
1556.  1.132958
1557.5  1.145576
1559.  1.118819
1560.5  1.100037
1562.  1.096085
1563.5  1.095062
1565.  1.123694
1566.5  1.122902
1568.  1.114371
1569.5  1.077335
1571.  1.071293
1572.5  1.09571
1574.  1.093896
1575.5  1.101798
1577.  1.115286
1578.5  1.139439
1580.  1.133402
1581.5  1.10199
1583.  1.096097
1584.5  1.135241
1586.  1.157519
1587.5  1.144025
1589.  1.132717
1590.5  1.125464
1592.  1.13542
1593.5  1.137008
1595.  1.154831
1596.5  1.14822
1598.  1.137657
1599.5  1.123727
1601.  1.133855
1602.5  1.11936
1604.  1.053635
1605.5  0.9887196
1607.  0.9455787
1608.5  0.9088485
1610.  0.8961978
1611.5  0.931725
1613.  0.9931551
1614.5  1.05712
1616.  1.108957
1617.5  1.123828
1619.  1.106373
1620.5  1.107088
1622.  1.119434
1623.5  1.116209
1625.  1.094133
1626.5  1.076291
1628.  1.085915
1629.5  1.084969
1631.  1.050605
1632.5  1.058819
1634.  1.09964
1635.5  1.134416
1637.  1.168827
1638.5  1.186492
1640.  1.206687
1641.5  1.190248
1643.  1.182569
1644.5  1.204815
1646.  1.18739
1647.5  1.141683
1649.  1.123954
1650.5  1.148557
1652.  1.130617
1653.5  1.090758
1655.  1.076897
1656.5  1.065361
1658.  1.069756
1659.5  1.095677
1661.  1.116958
1662.5  1.110312
1664.  1.079884
1665.5  1.037198
1667.  0.9838582
1668.5  0.9032319
1670.  0.8406371
1671.5  0.8463432
1673.  0.9054198
1674.5  1.019452
1676.  1.079211
1677.5  1.079449
1679.  1.129562
1680.5  1.181857
1682.  1.17738
1683.5  1.151474
1685.  1.145881
1686.5  1.125355
1688.  1.078154
1689.5  1.076623
1691.  1.071187
1692.5  1.085948
1694.  1.107962
1695.5  1.108172
1697.  1.058523
1698.5  1.044089
1700.  1.077501
1701.5  1.098559
1703.  1.077228
1704.5  1.057768
1706.  1.049533
1707.5  1.04654
1709.  1.037073
1710.5  1.023384
1712.  1.026682
1713.5  1.025572
1715.  1.005736
1716.5  0.9818307
1718.  0.987896
1719.5  0.9901255
1721.  0.9793493
1722.5  0.9973462
1724.  1.011557
1725.5  1.01654
1727.  1.050862
1728.5  1.071441
1730.  1.070522
1731.5  1.078386
1733.  1.088347
1734.5  1.078912
1736.  1.052777
1737.5  1.053957
1739.  1.053602
1740.5  1.025706
1742.  1.02707
1743.5  1.058045
1745.  1.070391
1746.5  1.052171
1748.  1.015652
1749.5  1.004092
1751.  1.018444
1752.5  1.036459
1754.  1.044343
1755.5  1.078265
1757.  1.084469
1758.5  1.060964
1760.  1.034754
1761.5  1.028318
1763.  1.043078
1764.5  1.033766
1766.  1.030264
1767.5  1.038829
1769.  1.041147
1770.5  1.044208
1772.  1.016032
1773.5  1.016834
1775.  1.023334
1776.5  0.9917334
1778.  0.9898038
1779.5  1.041187
1781.  1.079436
1782.5  1.080143
1784.  1.050406
1785.5  1.027254
1787.  1.01586
1788.5  1.047265
1790.  1.061816
1791.5  1.049467
1793.  1.045561
1794.5  1.055814
1796.  1.059253
1797.5  1.063677
1799.  1.068513
1800.5  1.068875
1802.  1.065096
1803.5  1.048178
1805.  1.007389
1806.5  0.9833019
1808.  0.9797578
1809.5  0.9840716
1811.  0.9829646
1812.5  1.024223
1814.  1.078654
1815.5  1.078684
1817.  1.056178
1818.5  1.034543
1820.  1.00329
1821.5  0.9945505
1823.  1.013178
1824.5  1.038645
1826.  1.003697
1827.5  0.9817393
1829.  0.9979441
1830.5  0.9840975
1832.  1.002538
1833.5  1.013689
1835.  0.9875749
1836.5  0.9956254
1838.  1.013871
1839.5  0.991365
1841.  0.9589002
1842.5  0.9434989
1844.  0.928335
1845.5  0.9326857
1847.  0.9050576
1848.5  0.8878491
1850.  0.9084101
1851.5  0.8799297
1853.  0.8359317
1854.5  0.8063203
1856.  0.7990291
1857.5  0.8471229
1859.  0.885376
1860.5  0.886126
1862.  0.8846724
1863.5  0.8724976
1865.  0.8864706
1866.5  0.9352953
1868.  1.006944
1869.5  1.022922
1871.  0.9859421
1872.5  0.9439632
1874.  0.9514682
1875.5  0.9694003
1877.  0.9720059
1878.5  0.9746355
1880.  0.9843656
1881.5  0.9886729
1883.  0.9639899
1884.5  0.9301113
1886.  0.9250047
1887.5  0.9074988
1889.  0.892259
1890.5  0.9163681
1892.  0.9190201
1893.5  0.9022628
1895.  0.8847673
1896.5  0.8832825
1898.  0.9271054
1899.5  0.9346294
1901.  0.8983079
1902.5  0.9119157
1904.  0.9866682
1905.5  0.9899812
1907.  1.016433
1908.5  1.039781
1910.  0.9795965
1911.5  0.9324944
1913.  0.9459326
1914.5  0.9427992
1916.  0.9209417
1917.5  0.8830908
1919.  0.8802965
1920.5  0.8701551
1922.  0.859216
1923.5  0.8780614
1925.  0.8881413
1926.5  0.8714916
1928.  0.842676
1929.5  0.828577
1931.  0.8579478
1932.5  0.8915776
1934.  0.8905792
1935.5  0.8945074
1937.  0.9063768
1938.5  0.8894718
1940.  0.8681265
1941.5  0.84705
1943.  0.8473546
1944.5  0.8547513
1946.  0.8699451
1947.5  0.8660135
1949.  0.8565699
1950.5  0.8490023
1952.  0.8390122
1953.5  0.825218
1955.  0.8538745
1956.5  0.8741967
1958.  0.8357208
1959.5  0.828094
1961.  0.8278804
1962.5  0.8154659
1964.  0.8155596
1965.5  0.819413
1967.  0.8336213
1968.5  0.8606933
1970.  0.8576009
1971.5  0.8664789
1973.  0.8950131
1974.5  0.9078637
1976.  0.8776447
1977.5  0.8542743
1979.  0.8711148
1980.5  0.8889362
1982.  0.8825182
1983.5  0.8501321
1985.  0.8310084
1986.5  0.8652428
1988.  0.8673983
1989.5  0.8048338
1991.  0.7929568
1992.5  0.8018478
1994.  0.7996606
1995.5  0.7918652
1997.  0.7835354
1998.5  0.7790223
2000.  0.8273141
2001.5  0.8367898
2003.  0.8029269
2004.5  0.789477
2006.  0.7986997
2007.5  0.8276653
2009.  0.8478001
2010.5  0.8302293
2012.  0.8281109
2013.5  0.8260772
2015.  0.7961497
2016.5  0.7947721
2018.  0.830176
2019.5  0.8344216
2021.  0.8325055
2022.5  0.8505704
2024.  0.8451577
2025.5  0.8243595
2027.  0.806406
2028.5  0.7944009
2030.  0.7803788
2031.5  0.7821864
2033.  0.811307
2034.5  0.8175481
2036.  0.7972223
2037.5  0.784802
2039.  0.7898439
2040.5  0.8136756
2042.  0.8013322
2043.5  0.7821779
2045.  0.7922872
2046.5  0.8345718
2048.  0.8172127
2049.5  0.751981
2051.  0.7185598
2052.5  0.7609255
2054.  0.7879792
2055.5  0.7486077
2057.  0.7333417
2058.5  0.7269376
2060.  0.7056215
2061.5  0.6883053
2063.  0.7040946
2064.5  0.7349629
2066.  0.7561556
2067.5  0.7475132
2069.  0.7602209
2070.5  0.7749518
2072.  0.7596931
2073.5  0.7568071
2075.  0.7817176
2076.5  0.7722741
2078.  0.7889414
2079.5  0.8101348
2081.  0.8124839
2082.5  0.7868407
2084.  0.7584985
2085.5  0.7485379
2087.  0.7537315
2088.5  0.7359453
2090.  0.7005632
2091.5  0.6987125
2093.  0.7282881
2094.5  0.728327
2096.  0.733207
2097.5  0.7315693
2099.  0.7259417
2100.5  0.732586
2102.  0.7361321
2103.5  0.7397017
2105.  0.7653605
2106.5  0.750901
2108.  0.7513465
2109.5  0.7465131
2111.  0.7227646
2112.5  0.7158967
2114.  0.7475476
2115.5  0.7606739
2117.  0.7456531
2118.5  0.7235487
2120.  0.7321646
2121.5  0.7694643
2123.  0.7853898
2124.5  0.7456792
2126.  0.7085595
2127.5  0.7266174
2129.  0.7333757
2130.5  0.750865
2132.  0.7526125
2133.5  0.7247977
2135.  0.7234315
2136.5  0.7276523
2138.  0.7092044
2139.5  0.7055275
2141.  0.7296658
2142.5  0.7424524
2144.  0.730608
2145.5  0.7149299
2147.  0.6983294
2148.5  0.7006727
2150.  0.7126148
2151.5  0.723693
2153.  0.6972037
2154.5  0.6729601
2156.  0.7060046
2157.5  0.7564639
2159.  0.7291117
2160.5  0.6935096
2162.  0.6777403
2163.5  0.7012203
2165.  0.7234702
2166.5  0.7266656
2168.  0.7328681
2169.5  0.7004156
2171.  0.6726276
2172.5  0.6864886
2174.  0.6919487
2175.5  0.6748521
2177.  0.6718292
2178.5  0.6845647
2180.  0.6916106
2181.5  0.6621383
2183.  0.6537089
2184.5  0.678259
2186.  0.7202418
2187.5  0.7304472
2189.  0.6684994
2190.5  0.6456194
2192.  0.6886024
2193.5  0.6980631
2195.  0.7088807
2196.5  0.7226748
2198.  0.7244484
2199.5  0.7261088
2201.  0.7305222
2202.5  0.6942937
2204.  0.6695141
2205.5  0.652275
2207.  0.6663165
2208.5  0.7122481
2210.  0.733532
2211.5  0.7086055
2213.  0.6899483
2214.5  0.6683074
2216.  0.6690415
2217.5  0.6591983
2219.  0.6545424
2220.5  0.692151
2222.  0.7193044
2223.5  0.6987442
2225.  0.671842
2226.5  0.6631957
2228.  0.6766602
2229.5  0.688913
2231.  0.6650903
2232.5  0.648753
2234.  0.6612727
2235.5  0.6781338
2237.  0.6609536
2238.5  0.6550756
2240.  0.6412631
2241.5  0.6385354
2243.  0.6702518
2244.5  0.665481
2246.  0.642341
2247.5  0.6580802
2249.  0.665224
2250.5  0.6298
