# ave_z_1.1_1.9[1068][real]: Average spectrum of 165 objects
1300.  0.7879445
1301.5  0.7980531
1303.  0.7646239
1304.5  0.877279
1306.  1.111528
1307.5  1.143921
1309.  1.086121
1310.5  1.081571
1312.  1.125677
1313.5  1.035724
1315.  1.024994
1316.5  1.078025
1318.  1.068562
1319.5  1.021955
1321.  1.021932
1322.5  1.097582
1324.  1.109415
1325.5  1.170039
1327.  1.133713
1328.5  1.081153
1330.  1.02782
1331.5  0.9548452
1333.  0.8934745
1334.5  0.8792855
1336.  0.918448
1337.5  0.975355
1339.  1.080615
1340.5  1.151111
1342.  1.122024
1343.5  1.103143
1345.  1.077973
1346.5  1.097931
1348.  1.217003
1349.5  1.349396
1351.  1.326206
1352.5  1.331684
1354.  1.263842
1355.5  1.31509
1357.  1.336336
1358.5  1.293441
1360.  1.289364
1361.5  1.325772
1363.  1.281698
1364.5  1.248327
1366.  1.292186
1367.5  1.29744
1369.  1.205968
1370.5  1.151803
1372.  1.127559
1373.5  1.133548
1375.  1.179473
1376.5  1.242002
1378.  1.246635
1379.5  1.250236
1381.  1.289166
1382.5  1.316706
1384.  1.282416
1385.5  1.210444
1387.  1.163046
1388.5  1.112506
1390.  1.075776
1391.5  1.016768
1393.  0.9555222
1394.5  0.9021247
1396.  1.010141
1397.5  1.043439
1399.  1.058798
1400.5  1.136439
1402.  1.191876
1403.5  1.224345
1405.  1.257437
1406.5  1.25775
1408.  1.290779
1409.5  1.365673
1411.  1.337263
1412.5  1.270918
1414.  1.229561
1415.5  1.244438
1417.  1.306611
1418.5  1.313474
1420.  1.319746
1421.5  1.3519
1423.  1.321549
1424.5  1.283736
1426.  1.262646
1427.5  1.228706
1429.  1.247863
1430.5  1.252388
1432.  1.248671
1433.5  1.252736
1435.  1.268322
1436.5  1.295911
1438.  1.264799
1439.5  1.268034
1441.  1.294785
1442.5  1.299142
1444.  1.318114
1445.5  1.305663
1447.  1.306666
1448.5  1.336589
1450.  1.329046
1451.5  1.237766
1453.  1.202467
1454.5  1.193579
1456.  1.214201
1457.5  1.243513
1459.  1.275925
1460.5  1.339913
1462.  1.336565
1463.5  1.299216
1465.  1.253106
1466.5  1.229139
1468.  1.265164
1469.5  1.285986
1471.  1.25927
1472.5  1.284291
1474.  1.273348
1475.5  1.267475
1477.  1.27677
1478.5  1.265859
1480.  1.257334
1481.5  1.268578
1483.  1.257173
1484.5  1.21784
1486.  1.220553
1487.5  1.237666
1489.  1.272962
1490.5  1.319304
1492.  1.320221
1493.5  1.287791
1495.  1.261511
1496.5  1.294945
1498.  1.310939
1499.5  1.287124
1501.  1.231072
1502.5  1.267435
1504.  1.272053
1505.5  1.245968
1507.  1.245158
1508.5  1.230286
1510.  1.244723
1511.5  1.260978
1513.  1.270825
1514.5  1.259609
1516.  1.271637
1517.5  1.293732
1519.  1.263303
1520.5  1.238025
1522.  1.180159
1523.5  1.091181
1525.  1.041703
1526.5  1.016893
1528.  1.007365
1529.5  1.030455
1531.  1.098256
1532.5  1.195429
1534.  1.238905
1535.5  1.22504
1537.  1.194634
1538.5  1.148334
1540.  1.087848
1541.5  1.029232
1543.  0.9643571
1544.5  0.9120026
1546.  0.8451902
1547.5  0.8236687
1549.  0.8209248
1550.5  0.8775783
1552.  0.9862318
1553.5  1.110425
1555.  1.196271
1556.5  1.227405
1558.  1.248806
1559.5  1.234214
1561.  1.197194
1562.5  1.189469
1564.  1.219258
1565.5  1.24064
1567.  1.220091
1568.5  1.191886
1570.  1.185371
1571.5  1.227971
1573.  1.237471
1574.5  1.227148
1576.  1.257794
1577.5  1.279501
1579.  1.277604
1580.5  1.269391
1582.  1.237175
1583.5  1.21797
1585.  1.237447
1586.5  1.266897
1588.  1.287249
1589.5  1.284898
1591.  1.274051
1592.5  1.253406
1594.  1.251686
1595.5  1.267078
1597.  1.254084
1598.5  1.245199
1600.  1.229412
1601.5  1.236996
1603.  1.205912
1604.5  1.152434
1606.  1.112322
1607.5  1.073447
1609.  1.045935
1610.5  1.054952
1612.  1.125441
1613.5  1.17393
1615.  1.222771
1616.5  1.231456
1618.  1.2425
1619.5  1.256117
1621.  1.247982
1622.5  1.227582
1624.  1.199576
1625.5  1.201465
1627.  1.212904
1628.5  1.23072
1630.  1.228022
1631.5  1.227847
1633.  1.230888
1634.5  1.236508
1636.  1.254486
1637.5  1.283558
1639.  1.30245
1640.5  1.295451
1642.  1.30362
1643.5  1.343894
1645.  1.348464
1646.5  1.323715
1648.  1.296718
1649.5  1.286423
1651.  1.272856
1652.5  1.253286
1654.  1.243803
1655.5  1.25769
1657.  1.280691
1658.5  1.277791
1660.  1.253223
1661.5  1.239287
1663.  1.240024
1664.5  1.236913
1666.  1.201874
1667.5  1.142613
1669.  1.085292
1670.5  1.02873
1672.  0.9991192
1673.5  1.033557
1675.  1.107445
1676.5  1.170079
1678.  1.233994
1679.5  1.28233
1681.  1.306543
1682.5  1.310947
1684.  1.299755
1685.5  1.284969
1687.  1.282049
1688.5  1.282148
1690.  1.267552
1691.5  1.267581
1693.  1.285161
1694.5  1.272192
1696.  1.249139
1697.5  1.230319
1699.  1.233718
1700.5  1.229835
1702.  1.207264
1703.5  1.194433
1705.  1.185048
1706.5  1.186083
1708.  1.1873
1709.5  1.180539
1711.  1.179843
1712.5  1.186247
1714.  1.183737
1715.5  1.171029
1717.  1.165688
1718.5  1.15545
1720.  1.137654
1721.5  1.128564
1723.  1.153981
1724.5  1.174568
1726.  1.179734
1727.5  1.192906
1729.  1.220562
1730.5  1.242414
1732.  1.23688
1733.5  1.231168
1735.  1.226237
1736.5  1.210772
1738.  1.2013
1739.5  1.200269
1741.  1.196705
1742.5  1.199709
1744.  1.198393
1745.5  1.196699
1747.  1.193513
1748.5  1.188072
1750.  1.189728
1751.5  1.189772
1753.  1.19462
1754.5  1.197661
1756.  1.210566
1757.5  1.240075
1759.  1.253088
1760.5  1.236392
1762.  1.225052
1763.5  1.20906
1765.  1.184359
1766.5  1.17945
1768.  1.182587
1769.5  1.183136
1771.  1.185749
1772.5  1.186588
1774.  1.187327
1775.5  1.196624
1777.  1.210434
1778.5  1.209607
1780.  1.211958
1781.5  1.220134
1783.  1.224585
1784.5  1.232585
1786.  1.231587
1787.5  1.220685
1789.  1.209204
1790.5  1.204326
1792.  1.210378
1793.5  1.212142
1795.  1.221368
1796.5  1.233421
1798.  1.222237
1799.5  1.205352
1801.  1.200137
1802.5  1.199772
1804.  1.194063
1805.5  1.182433
1807.  1.173277
1808.5  1.175816
1810.  1.180925
1811.5  1.188859
1813.  1.197487
1814.5  1.201072
1816.  1.204561
1817.5  1.194829
1819.  1.184222
1820.5  1.196096
1822.  1.197189
1823.5  1.179903
1825.  1.177655
1826.5  1.186385
1828.  1.182121
1829.5  1.173912
1831.  1.171796
1832.5  1.173807
1834.  1.180604
1835.5  1.192411
1837.  1.186844
1838.5  1.172871
1840.  1.162544
1841.5  1.134568
1843.  1.114166
1844.5  1.109848
1846.  1.09372
1847.5  1.071217
1849.  1.045319
1850.5  1.024644
1852.  1.002497
1853.5  0.9816702
1855.  0.9671762
1856.5  0.9688996
1858.  0.9835309
1859.5  1.004794
1861.  1.019596
1862.5  1.028496
1864.  1.05492
1865.5  1.080961
1867.  1.110641
1868.5  1.135231
1870.  1.141202
1871.5  1.142245
1873.  1.139074
1874.5  1.130934
1876.  1.127146
1877.5  1.134273
1879.  1.144297
1880.5  1.141086
1882.  1.120674
1883.5  1.100273
1885.  1.08744
1886.5  1.074883
1888.  1.065754
1889.5  1.065542
1891.  1.063859
1892.5  1.056017
1894.  1.051927
1895.5  1.056206
1897.  1.058554
1898.5  1.064308
1900.  1.07202
1901.5  1.098954
1903.  1.136267
1904.5  1.174057
1906.  1.20648
1907.5  1.235075
1909.  1.236103
1910.5  1.197138
1912.  1.142498
1913.5  1.101964
1915.  1.070528
1916.5  1.049192
1918.  1.033209
1919.5  1.02289
1921.  1.012901
1922.5  1.000122
1924.  0.9948362
1925.5  1.000329
1927.  1.000375
1928.5  1.014091
1930.  1.038219
1931.5  1.036542
1933.  1.04419
1934.5  1.066307
1936.  1.06298
1937.5  1.045971
1939.  1.034876
1940.5  1.034862
1942.  1.032285
1943.5  1.034299
1945.  1.042975
1946.5  1.039953
1948.  1.031194
1949.5  1.024826
1951.  1.010382
1952.5  0.990167
1954.  0.9847215
1955.5  0.9911
1957.  1.001385
1958.5  1.004393
1960.  0.9993048
1961.5  0.9921796
1963.  1.005957
1964.5  1.01861
1966.  1.020105
1967.5  1.036492
1969.  1.066953
1970.5  1.072063
1972.  1.060863
1973.5  1.066918
1975.  1.080239
1976.5  1.086025
1978.  1.086433
1979.5  1.062871
1981.  1.029879
1982.5  1.008532
1984.  0.9972451
1985.5  0.996327
1987.  0.9930676
1988.5  0.9904899
1990.  0.9996618
1991.5  0.9955792
1993.  0.9777898
1994.5  0.9650884
1996.  0.9578106
1997.5  0.9531416
1999.  0.965105
2000.5  0.9834612
2002.  0.9912262
2003.5  0.9925236
2005.  1.000407
2006.5  1.003989
2008.  0.9808869
2009.5  0.9649145
2011.  0.981724
2012.5  0.9992403
2014.  0.9949573
2015.5  0.9848623
2017.  0.9759811
2018.5  0.9798224
2020.  1.003138
2021.5  1.008788
2023.  0.9915705
2024.5  0.9807181
2026.  0.9651415
2027.5  0.9526157
2029.  0.9634361
2030.5  0.9771659
2032.  0.9843102
2033.5  0.9754592
2035.  0.9568405
2036.5  0.9445068
2038.  0.9390278
2039.5  0.9326296
2041.  0.9365798
2042.5  0.9385591
2044.  0.9331129
2045.5  0.9493308
2047.  0.9628689
2048.5  0.9611325
2050.  0.9469096
2051.5  0.9371747
2053.  0.9377565
2054.5  0.9290465
2056.  0.9231869
2057.5  0.920612
2059.  0.9007221
2060.5  0.8761106
2062.  0.8745052
2063.5  0.8897154
2065.  0.8994558
2066.5  0.897877
2068.  0.9005583
2069.5  0.9217529
2071.  0.9352548
2072.5  0.9377245
2074.  0.9427529
2075.5  0.9517998
2077.  0.9654016
2078.5  0.981088
2080.  0.9818184
2081.5  0.9611991
2083.  0.9433649
2084.5  0.9412131
2086.  0.9329285
2087.5  0.9069749
2089.  0.8786742
2090.5  0.8751722
2092.  0.8922626
2093.5  0.918302
2095.  0.9184636
2096.5  0.913621
2098.  0.9027694
2099.5  0.8884048
2101.  0.8913265
2102.5  0.9075716
2104.  0.9294645
2105.5  0.9264981
2107.  0.9077272
2108.5  0.9008949
2110.  0.9044248
2111.5  0.907551
2113.  0.9081208
2114.5  0.9111166
2116.  0.9130452
2117.5  0.9223117
2119.  0.9172509
2120.5  0.8992218
2122.  0.8881956
2123.5  0.8886229
2125.  0.9004641
2126.5  0.9200136
2128.  0.9238074
2129.5  0.9081343
2131.  0.8931855
2132.5  0.8863679
2134.  0.8908918
2135.5  0.8899394
2137.  0.8829135
2138.5  0.8845651
2140.  0.8834574
2141.5  0.8904946
2143.  0.8985413
2144.5  0.881756
2146.  0.8553164
2147.5  0.8473635
2149.  0.8570325
2150.5  0.8730348
2152.  0.8797239
2153.5  0.8778869
2155.  0.8717273
2156.5  0.8804982
2158.  0.8747771
2159.5  0.857329
2161.  0.8488412
2162.5  0.8520957
2164.  0.8505359
2165.5  0.8399277
2167.  0.8418873
2168.5  0.8519468
2170.  0.8403209
2171.5  0.8333074
2173.  0.8535612
2174.5  0.8730015
2176.  0.8755785
2177.5  0.8610704
2179.  0.838698
2180.5  0.8285828
2182.  0.8455033
2183.5  0.8646437
2185.  0.8585657
2186.5  0.8566934
2188.  0.858259
2189.5  0.8475254
2191.  0.8376703
2192.5  0.8432017
2194.  0.8462536
2195.5  0.859831
2197.  0.8673676
2198.5  0.8580114
2200.  0.8438719
2201.5  0.8429945
2203.  0.8407831
2204.5  0.8415222
2206.  0.8451676
2207.5  0.8450447
2209.  0.8390796
2210.5  0.8374426
2212.  0.8486826
2213.5  0.8472679
2215.  0.8275866
2216.5  0.8194231
2218.  0.82959
2219.5  0.827288
2221.  0.8125347
2222.5  0.8058407
2224.  0.8166857
2225.5  0.8267997
2227.  0.8254151
2228.5  0.8255491
2230.  0.8249863
2231.5  0.8195192
2233.  0.8316226
2234.5  0.8303042
2236.  0.8335556
2237.5  0.8335252
2239.  0.8309791
2240.5  0.8099311
2242.  0.813589
2243.5  0.8215392
2245.  0.8151532
2246.5  0.8141905
2248.  0.8170802
2249.5  0.8026991
2251.  0.7795834
2252.5  0.7547812
2254.  0.7592544
2255.5  0.7771804
2257.  0.7765903
2258.5  0.7746854
2260.  0.7750144
2261.5  0.769832
2263.  0.7676712
2264.5  0.7747118
2266.  0.7818672
2267.5  0.7910352
2269.  0.7996657
2270.5  0.8174357
2272.  0.8340873
2273.5  0.8352616
2275.  0.822081
2276.5  0.8152189
2278.  0.816627
2279.5  0.8037051
2281.  0.7938991
2282.5  0.8007999
2284.  0.8078867
2285.5  0.8096043
2287.  0.8144898
2288.5  0.8007382
2290.  0.7940161
2291.5  0.8026106
2293.  0.7996459
2294.5  0.7906705
2296.  0.78095
2297.5  0.7769615
2299.  0.784674
2300.5  0.7834276
2302.  0.7796404
2303.5  0.7827677
2305.  0.7979375
2306.5  0.8126393
2308.  0.8040242
2309.5  0.8011954
2311.  0.7995054
2312.5  0.7839458
2314.  0.7855132
2315.5  0.7936225
2317.  0.7931705
2318.5  0.8023099
2320.  0.814568
2321.5  0.8132696
2323.  0.8169482
2324.5  0.8290924
2326.  0.8393446
2327.5  0.8523342
2329.  0.859185
2330.5  0.8552268
2332.  0.8316922
2333.5  0.7937056
2335.  0.7543994
2336.5  0.7285438
2338.  0.7101951
2339.5  0.6722813
2341.  0.6193113
2342.5  0.5798767
2344.  0.5639848
2345.5  0.5779387
2347.  0.627365
2348.5  0.6797823
2350.  0.7199603
2351.5  0.7488785
2353.  0.7596251
2354.5  0.7527265
2356.  0.7575294
2357.5  0.7754867
2359.  0.7819331
2360.5  0.7912259
2362.  0.7894675
2363.5  0.7806572
2365.  0.7784847
2366.5  0.7710715
2368.  0.7516627
2369.5  0.7215771
2371.  0.6861317
2372.5  0.6408797
2374.  0.606992
2375.5  0.5980339
2377.  0.5977752
2378.5  0.5867286
2380.  0.5781202
2381.5  0.5663464
2383.  0.5679492
2384.5  0.6026194
2386.  0.6517392
2387.5  0.6952882
2389.  0.7330077
2390.5  0.7549829
2392.  0.7723324
2393.5  0.7858218
2395.  0.7973213
2396.5  0.8040102
2398.  0.8047624
2399.5  0.7948909
2401.  0.7786357
2402.5  0.7648115
2404.  0.7459126
2405.5  0.7199609
2407.  0.7004501
2408.5  0.7062723
2410.  0.7321513
2411.5  0.7588718
2413.  0.7608027
2414.5  0.7505066
2416.  0.7663199
2417.5  0.7814179
2419.  0.7659394
2420.5  0.7512568
2422.  0.7583413
2423.5  0.7698262
2425.  0.7667546
2426.5  0.7551014
2428.  0.7447696
2429.5  0.726759
2431.  0.7200974
2432.5  0.73588
2434.  0.7546314
2435.5  0.7414436
2437.  0.7276392
2438.5  0.7354265
2440.  0.7415889
2441.5  0.7446062
2443.  0.7501481
2444.5  0.7552832
2446.  0.7610448
2447.5  0.7576152
2449.  0.7352981
2450.5  0.7206933
2452.  0.722101
2453.5  0.7317954
2455.  0.7373499
2456.5  0.7401824
2458.  0.7464228
2459.5  0.753654
2461.  0.7424771
2462.5  0.7258023
2464.  0.7415361
2465.5  0.768855
2467.  0.7818519
2468.5  0.7755553
2470.  0.7750029
2471.5  0.779532
2473.  0.7693342
2474.5  0.7564151
2476.  0.7545615
2477.5  0.767292
2479.  0.7694414
2480.5  0.7637327
2482.  0.7526302
2483.5  0.7346031
2485.  0.7275864
2486.5  0.7227272
2488.  0.7148188
2489.5  0.7258675
2491.  0.7478575
2492.5  0.7568685
2494.  0.7521778
2495.5  0.7500272
2497.  0.7463328
2498.5  0.7325819
2500.  0.7253852
2501.5  0.7328864
2503.  0.742983
2504.5  0.7482565
2506.  0.7523314
2507.5  0.7472751
2509.  0.736659
2510.5  0.729699
2512.  0.7367666
2513.5  0.7489882
2515.  0.7277306
2516.5  0.7025603
2518.  0.6987929
2519.5  0.7065471
2521.  0.7194468
2522.5  0.7188447
2524.  0.7162855
2525.5  0.7089604
2527.  0.7098312
2528.5  0.7251961
2530.  0.7392206
2531.5  0.7384992
2533.  0.7363035
2534.5  0.7382318
2536.  0.7328562
2537.5  0.7280181
2539.  0.7343168
2540.5  0.7343692
2542.  0.7166121
2543.5  0.7046236
2545.  0.6955462
2546.5  0.6851398
2548.  0.6772265
2549.5  0.6883858
2551.  0.700591
2552.5  0.7050688
2554.  0.7142435
2555.5  0.7253433
2557.  0.7407621
2558.5  0.7551897
2560.  0.7440835
2561.5  0.7229264
2563.  0.7220008
2564.5  0.730532
2566.  0.7312402
2567.5  0.7256215
2569.  0.7176452
2570.5  0.7234541
2572.  0.7141095
2573.5  0.7022195
2575.  0.6936073
2576.5  0.690509
2578.  0.6986308
2579.5  0.6908118
2581.  0.6554734
2582.5  0.6028523
2584.  0.5630021
2585.5  0.5645617
2587.  0.580378
2588.5  0.5903078
2590.  0.5913774
2591.5  0.5873284
2593.  0.5867879
2594.5  0.5844952
2596.  0.5601067
2597.5  0.526648
2599.  0.501473
2600.5  0.4940101
2602.  0.5194435
2603.5  0.5721
2605.  0.628162
2606.5  0.6746451
2608.  0.7057976
2609.5  0.7253185
2611.  0.7265936
2612.5  0.7146635
2614.  0.73045
2615.5  0.7569289
2617.  0.7663845
2618.5  0.7648064
2620.  0.772615
2621.5  0.7981597
2623.  0.7788611
2624.5  0.7773436
2626.  0.7865757
2627.5  0.7828748
2629.  0.7754808
2630.5  0.763113
2632.  0.7467003
2633.5  0.7390589
2635.  0.7445313
2636.5  0.7513387
2638.  0.750546
2639.5  0.7367404
2641.  0.7295861
2642.5  0.7399707
2644.  0.7368898
2645.5  0.7300771
2647.  0.7329035
2648.5  0.7348974
2650.  0.727883
2651.5  0.7195059
2653.  0.7178345
2654.5  0.7306454
2656.  0.7451098
2657.5  0.738808
2659.  0.7163116
2660.5  0.708859
2662.  0.7203086
2663.5  0.7179099
2665.  0.7066271
2666.5  0.7097181
2668.  0.7127625
2669.5  0.7066683
2671.  0.6979609
2672.5  0.7053846
2674.  0.7237333
2675.5  0.733884
2677.  0.7107865
2678.5  0.697746
2680.  0.7021276
2681.5  0.7104998
2683.  0.7146834
2684.5  0.7200324
2686.  0.7173511
2687.5  0.700001
2689.  0.6958974
2690.5  0.7125159
2692.  0.7209761
2693.5  0.7121623
2695.  0.7060557
2696.5  0.6965875
2698.  0.6921629
2699.5  0.6940009
2701.  0.6919176
2702.5  0.6817504
2704.  0.6663891
2705.5  0.6721991
2707.  0.6839097
2708.5  0.6859704
2710.  0.6873364
2711.5  0.6904869
2713.  0.6860517
2714.5  0.6666573
2716.  0.6660659
2717.5  0.6875488
2719.  0.6901231
2720.5  0.696451
2722.  0.6963207
2723.5  0.6650759
2725.  0.6856213
2726.5  0.6846751
2728.  0.6791545
2729.5  0.6653475
2731.  0.6586244
2732.5  0.6726813
2734.  0.6913944
2735.5  0.6802981
2737.  0.6644427
2738.5  0.6748484
2740.  0.69107
2741.5  0.6997079
2743.  0.6683738
2744.5  0.6752161
2746.  0.6635484
2747.5  0.6643301
2749.  0.6772457
2750.5  0.6798981
2752.  0.6736055
2753.5  0.6764998
2755.  0.6773844
2756.5  0.6811929
2758.  0.6951372
2759.5  0.7026491
2761.  0.7047009
2762.5  0.7067494
2764.  0.697453
2765.5  0.6798893
2767.  0.6907046
2768.5  0.7057785
2770.  0.6837291
2771.5  0.6841851
2773.  0.694947
2774.5  0.7074321
2776.  0.7206774
2777.5  0.7139226
2779.  0.6779276
2780.5  0.6571939
2782.  0.6747373
2783.5  0.6923035
2785.  0.6952375
2786.5  0.6765355
2788.  0.6415597
2789.5  0.5869247
2791.  0.5449479
2792.5  0.507665
2794.  0.4794461
2795.5  0.4619293
2797.  0.4552079
2798.5  0.4478496
2800.  0.4460016
2801.5  0.4639525
2803.  0.484738
2804.5  0.5136007
2806.  0.5642518
2807.5  0.6265922
2809.  0.6620763
2810.5  0.6788146
2812.  0.685753
2813.5  0.6436712
2815.  0.6399336
2816.5  0.6599054
2818.  0.6912678
2819.5  0.712368
2821.  0.7021363
2822.5  0.6680283
2824.  0.6573374
2825.5  0.675132
2827.  0.6919709
2828.5  0.691479
2830.  0.6788819
2831.5  0.653714
2833.  0.6608628
2834.5  0.667929
2836.  0.6513885
2837.5  0.6485776
2839.  0.6653513
2840.5  0.6749866
2842.  0.6742482
2843.5  0.6691365
2845.  0.6630406
2846.5  0.6278986
2848.  0.6046489
2849.5  0.6051464
2851.  0.6045516
2852.5  0.6148436
2854.  0.6272927
2855.5  0.632821
2857.  0.6373236
2858.5  0.6298926
2860.  0.6300923
2861.5  0.6331997
2863.  0.646872
2864.5  0.6517336
2866.  0.6529451
2867.5  0.6654302
2869.  0.671049
2870.5  0.6293751
2872.  0.6229885
2873.5  0.633801
2875.  0.6321565
2876.5  0.6285492
2878.  0.649759
2879.5  0.6623251
2881.  0.6585403
2882.5  0.6436869
2884.  0.6335002
2885.5  0.6309664
2887.  0.6511235
2888.5  0.6681442
2890.  0.6437619
2891.5  0.6148773
2893.  0.6106803
2894.5  0.633551
2896.  0.658222
2897.5  0.6589521
2899.  0.6497339
2900.5  0.6555213
