# ave_BM[1034][real]: Average spectrum of 147 objects
1150.  0.8932383
1151.5  0.8428895
1153.  0.8462762
1154.5  0.7905444
1156.  0.7471123
1157.5  0.77706
1159.  0.7329412
1160.5  0.7404867
1162.  0.8842286
1163.5  1.038765
1165.  0.9251731
1166.5  0.8450656
1168.  0.8601445
1169.5  0.876911
1171.  0.6430501
1172.5  0.6745027
1174.  0.6589299
1175.5  0.6310863
1177.  0.7949026
1178.5  0.9037904
1180.  0.8671717
1181.5  0.6430914
1183.  0.7931986
1184.5  0.7847003
1186.  0.6988897
1187.5  0.5876894
1189.  0.5247235
1190.5  0.5881078
1192.  0.5490605
1193.5  0.6640069
1195.  0.7759296
1196.5  0.7391272
1198.  0.649309
1199.5  0.5532416
1201.  0.6094144
1202.5  0.6104225
1204.  0.6813427
1205.5  0.5868756
1207.  0.5923083
1208.5  0.4870854
1210.  0.5882979
1211.5  0.7438812
1213.  0.9201847
1214.5  0.835978
1216.  0.7645518
1217.5  0.8634484
1219.  1.019062
1220.5  1.100237
1222.  1.023171
1223.5  0.8672004
1225.  0.8805295
1226.5  0.8891572
1228.  0.8867729
1229.5  0.8616725
1231.  0.8241975
1232.5  0.8550405
1234.  0.8715151
1235.5  0.8322576
1237.  0.9269361
1238.5  1.05886
1240.  1.036257
1241.5  1.028441
1243.  1.044879
1244.5  1.112108
1246.  1.099772
1247.5  1.087021
1249.  1.029132
1250.5  0.9592642
1252.  0.9339399
1253.5  1.021455
1255.  0.9963856
1256.5  0.8568911
1258.  0.8830634
1259.5  0.7772352
1261.  0.8281257
1262.5  0.9468833
1264.  1.097541
1265.5  1.216275
1267.  1.127112
1268.5  1.010098
1270.  1.069117
1271.5  1.115545
1273.  1.098886
1274.5  1.063643
1276.  1.045533
1277.5  1.06525
1279.  1.041636
1280.5  1.049474
1282.  1.079958
1283.5  1.093272
1285.  1.17685
1286.5  1.180235
1288.  1.150588
1289.5  1.152232
1291.  1.148486
1292.5  1.116408
1294.  1.096119
1295.5  1.058105
1297.  0.9630055
1298.5  0.9237482
1300.  0.890833
1301.5  0.8248947
1303.  0.7351522
1304.5  0.7960978
1306.  1.001701
1307.5  1.157894
1309.  1.188901
1310.5  1.193747
1312.  1.194648
1313.5  1.212095
1315.  1.200662
1316.5  1.125576
1318.  1.104514
1319.5  1.103558
1321.  1.108247
1322.5  1.114026
1324.  1.127399
1325.5  1.102055
1327.  1.067869
1328.5  1.087541
1330.  1.069795
1331.5  0.9402333
1333.  0.8599948
1334.5  0.8585194
1336.  0.9055856
1337.5  0.9910564
1339.  1.068459
1340.5  1.130033
1342.  1.133067
1343.5  1.179924
1345.  1.144345
1346.5  1.13492
1348.  1.151644
1349.5  1.209009
1351.  1.240833
1352.5  1.232239
1354.  1.180409
1355.5  1.201446
1357.  1.239137
1358.5  1.227156
1360.  1.191851
1361.5  1.177794
1363.  1.177094
1364.5  1.179551
1366.  1.179459
1367.5  1.144047
1369.  1.116067
1370.5  1.133016
1372.  1.134409
1373.5  1.074411
1375.  1.068148
1376.5  1.115216
1378.  1.166177
1379.5  1.164845
1381.  1.134482
1382.5  1.130405
1384.  1.141909
1385.5  1.140777
1387.  1.111755
1388.5  1.07658
1390.  0.9961209
1391.5  0.9466056
1393.  0.899424
1394.5  0.8700774
1396.  0.9252644
1397.5  0.9536911
1399.  0.9479666
1400.5  0.9943122
1402.  1.07224
1403.5  1.087943
1405.  1.110674
1406.5  1.142822
1408.  1.161675
1409.5  1.16129
1411.  1.131922
1412.5  1.118521
1414.  1.13107
1415.5  1.167504
1417.  1.188033
1418.5  1.181151
1420.  1.18496
1421.5  1.18643
1423.  1.173421
1424.5  1.16203
1426.  1.132985
1427.5  1.118326
1429.  1.12698
1430.5  1.115019
1432.  1.101832
1433.5  1.123971
1435.  1.118613
1436.5  1.115031
1438.  1.115457
1439.5  1.150031
1441.  1.164861
1442.5  1.141323
1444.  1.13217
1445.5  1.140776
1447.  1.123826
1448.5  1.154013
1450.  1.137517
1451.5  1.119816
1453.  1.086073
1454.5  1.074072
1456.  1.087711
1457.5  1.116757
1459.  1.152603
1460.5  1.178225
1462.  1.156294
1463.5  1.123504
1465.  1.101375
1466.5  1.091014
1468.  1.1109
1469.5  1.12196
1471.  1.126077
1472.5  1.127035
1474.  1.095197
1475.5  1.08741
1477.  1.091879
1478.5  1.113035
1480.  1.113675
1481.5  1.074391
1483.  1.065919
1484.5  1.040961
1486.  1.060873
1487.5  1.089746
1489.  1.106156
1490.5  1.141626
1492.  1.140324
1493.5  1.11389
1495.  1.097552
1496.5  1.115023
1498.  1.124033
1499.5  1.089951
1501.  1.098426
1502.5  1.138411
1504.  1.147549
1505.5  1.107744
1507.  1.089589
1508.5  1.093481
1510.  1.115492
1511.5  1.112158
1513.  1.104018
1514.5  1.105355
1516.  1.106759
1517.5  1.118733
1519.  1.120301
1520.5  1.087208
1522.  1.029203
1523.5  0.960391
1525.  0.9252988
1526.5  0.9105993
1528.  0.8752435
1529.5  0.9066183
1531.  0.9978782
1532.5  1.056695
1534.  1.072315
1535.5  1.0547
1537.  1.034796
1538.5  1.003411
1540.  0.9472717
1541.5  0.9098668
1543.  0.8680846
1544.5  0.8121268
1546.  0.7479796
1547.5  0.7073928
1549.  0.711814
1550.5  0.7590687
1552.  0.8558233
1553.5  0.9734005
1555.  1.055834
1556.5  1.085093
1558.  1.091493
1559.5  1.096789
1561.  1.086086
1562.5  1.0531
1564.  1.041093
1565.5  1.051131
1567.  1.07018
1568.5  1.05062
1570.  1.04274
1571.5  1.070494
1573.  1.0713
1574.5  1.052613
1576.  1.086172
1577.5  1.103275
1579.  1.100194
1580.5  1.085053
1582.  1.057048
1583.5  1.079995
1585.  1.114722
1586.5  1.096991
1588.  1.077256
1589.5  1.08525
1591.  1.082244
1592.5  1.07163
1594.  1.080564
1595.5  1.094747
1597.  1.072621
1598.5  1.05261
1600.  1.058552
1601.5  1.071017
1603.  1.064095
1604.5  1.031302
1606.  0.9684795
1607.5  0.9334843
1609.  0.9252224
1610.5  0.9340754
1612.  0.9733783
1613.5  1.007396
1615.  1.048906
1616.5  1.054377
1618.  1.054924
1619.5  1.076895
1621.  1.075123
1622.5  1.045276
1624.  1.058491
1625.5  1.063023
1627.  1.053747
1628.5  1.05248
1630.  1.030499
1631.5  1.033849
1633.  1.057277
1634.5  1.064573
1636.  1.073652
1637.5  1.116657
1639.  1.137619
1640.5  1.127453
1642.  1.125444
1643.5  1.130792
1645.  1.114114
1646.5  1.107181
1648.  1.107782
1649.5  1.115479
1651.  1.094901
1652.5  1.081843
1654.  1.069914
1655.5  1.074382
1657.  1.101206
1658.5  1.109631
1660.  1.09336
1661.5  1.083954
1663.  1.095038
1664.5  1.078541
1666.  1.053064
1667.5  1.022303
1669.  0.9709234
1670.5  0.9115915
1672.  0.875861
1673.5  0.8991436
1675.  0.9584023
1676.5  1.006234
1678.  1.036808
1679.5  1.071604
1681.  1.100263
1682.5  1.106939
1684.  1.100434
1685.5  1.088969
1687.  1.089497
1688.5  1.07718
1690.  1.075873
1691.5  1.074503
1693.  1.062183
1694.5  1.041987
1696.  1.048555
1697.5  1.062737
1699.  1.074841
1700.5  1.053534
1702.  1.012788
1703.5  1.014287
1705.  1.023252
1706.5  1.026471
1708.  0.9814845
1709.5  1.005395
1711.  1.009027
1712.5  0.9894275
1714.  1.01182
1715.5  1.014857
1717.  1.012515
1718.5  0.9989471
1720.  0.9751083
1721.5  0.9680279
1723.  0.9903161
1724.5  1.004014
1726.  1.01443
1727.5  1.039446
1729.  1.033777
1730.5  1.031491
1732.  1.054935
1733.5  1.04773
1735.  1.022158
1736.5  1.008225
1738.  1.012087
1739.5  1.002942
1741.  0.9886031
1742.5  0.9981866
1744.  1.011701
1745.5  1.006663
1747.  1.011473
1748.5  1.013362
1750.  1.02067
1751.5  1.023819
1753.  1.020489
1754.5  1.010403
1756.  1.03444
1757.5  1.075947
1759.  1.085392
1760.5  1.059176
1762.  1.027505
1763.5  1.019455
1765.  1.01306
1766.5  1.011371
1768.  1.02047
1769.5  1.007904
1771.  1.006882
1772.5  1.018122
1774.  1.005119
1775.5  1.001657
1777.  1.020823
1778.5  1.037072
1780.  1.02899
1781.5  1.003062
1783.  1.021396
1784.5  1.035898
1786.  1.022346
1787.5  1.007679
1789.  1.004548
1790.5  0.9879891
1792.  0.9778267
1793.5  0.9773914
1795.  1.013904
1796.5  1.03903
1798.  1.029485
1799.5  1.022176
1801.  1.029406
1802.5  1.028004
1804.  1.027417
1805.5  1.013517
1807.  0.9787632
1808.5  0.966978
1810.  0.9747282
1811.5  0.9736422
1813.  0.9776586
1814.5  0.974665
1816.  0.9882786
1817.5  1.019813
1819.  1.022605
1820.5  0.996408
1822.  0.9798584
1823.5  0.9805146
1825.  0.9824939
1826.5  0.9788234
1828.  1.004832
1829.5  1.01554
1831.  0.9794328
1832.5  0.9740009
1834.  1.001695
1835.5  1.010088
1837.  1.001032
1838.5  0.9818927
1840.  0.957688
1841.5  0.9429813
1843.  0.9404807
1844.5  0.9046266
1846.  0.8841474
1847.5  0.8961585
1849.  0.8894411
1850.5  0.8771567
1852.  0.8549293
1853.5  0.8391305
1855.  0.8300402
1856.5  0.8385786
1858.  0.8431134
1859.5  0.83836
1861.  0.8524722
1862.5  0.8825873
1864.  0.9045431
1865.5  0.9167103
1867.  0.9431018
1868.5  0.9491385
1870.  0.9300216
1871.5  0.9352626
1873.  0.9421786
1874.5  0.9397665
1876.  0.9313416
1877.5  0.9207424
1879.  0.9483213
1880.5  0.9555428
1882.  0.930621
1883.5  0.9165991
1885.  0.9121396
1886.5  0.9217235
1888.  0.9227136
1889.5  0.8997862
1891.  0.8794419
1892.5  0.8767999
1894.  0.8878793
1895.5  0.8738632
1897.  0.8516275
1898.5  0.8681002
1900.  0.9136503
1901.5  0.925497
1903.  0.9346249
1904.5  1.002715
1906.  1.035414
1907.5  1.037998
1909.  1.039794
1910.5  1.018023
1912.  0.9783623
1913.5  0.9284903
1915.  0.8812974
1916.5  0.8620412
1918.  0.8673251
1919.5  0.8620184
1921.  0.8794457
1922.5  0.8815362
1924.  0.8507351
1925.5  0.820125
1927.  0.8065261
1928.5  0.8111759
1930.  0.8346038
1931.5  0.8508069
1933.  0.8625128
1934.5  0.8918157
1936.  0.9143094
1937.5  0.901621
1939.  0.860363
1940.5  0.8576528
1942.  0.8628181
1943.5  0.8389881
1945.  0.842648
1946.5  0.8668548
1948.  0.8666014
1949.5  0.860109
1951.  0.8382086
1952.5  0.8283718
1954.  0.8238459
1955.5  0.8165826
1957.  0.8281515
1958.5  0.8333264
1960.  0.8185434
1961.5  0.8103741
1963.  0.8261735
1964.5  0.8376935
1966.  0.8407565
1967.5  0.8263345
1969.  0.8484907
1970.5  0.8840956
1972.  0.8832313
1973.5  0.8848631
1975.  0.8889124
1976.5  0.8851011
1978.  0.883336
1979.5  0.8877952
1981.  0.891083
1982.5  0.8684843
1984.  0.8407548
1985.5  0.8307274
1987.  0.8058183
1988.5  0.7973489
1990.  0.8102191
1991.5  0.8082677
1993.  0.8241234
1994.5  0.8254684
1996.  0.8221377
1997.5  0.8387343
1999.  0.8320831
2000.5  0.8027064
2002.  0.7968445
2003.5  0.821516
2005.  0.8388909
2006.5  0.8364176
2008.  0.8135749
2009.5  0.7925981
2011.  0.8042945
2012.5  0.8225886
2014.  0.8282143
2015.5  0.8323326
2017.  0.8149158
2018.5  0.8093564
2020.  0.8363993
2021.5  0.8372578
2023.  0.817347
2024.5  0.8198392
2026.  0.822493
2027.5  0.8094019
2029.  0.8048627
2030.5  0.8055418
2032.  0.8195991
2033.5  0.8164411
2035.  0.7909918
2036.5  0.7767141
2038.  0.7741263
2039.5  0.763509
2041.  0.7610095
2042.5  0.7767704
2044.  0.7775001
2045.5  0.7781952
2047.  0.7959719
2048.5  0.7986736
2050.  0.8021614
2051.5  0.7994975
2053.  0.7814215
2054.5  0.7594725
2056.  0.7653463
2057.5  0.7792339
2059.  0.7749487
2060.5  0.7691421
2062.  0.7600722
2063.5  0.7504705
2065.  0.759354
2066.5  0.7576482
2068.  0.7589386
2069.5  0.7572453
2071.  0.7540144
2072.5  0.765376
2074.  0.7605199
2075.5  0.7698794
2077.  0.7885105
2078.5  0.7943266
2080.  0.797869
2081.5  0.8060776
2083.  0.8110527
2084.5  0.8097643
2086.  0.7899014
2087.5  0.7681604
2089.  0.7542252
2090.5  0.7437677
2092.  0.7359596
2093.5  0.746779
2095.  0.7720465
2096.5  0.7626369
2098.  0.7494994
2099.5  0.7567388
2101.  0.7648529
2102.5  0.7652694
2104.  0.7491487
2105.5  0.7371638
2107.  0.7464162
2108.5  0.7544398
2110.  0.7601575
2111.5  0.7681129
2113.  0.7577858
2114.5  0.7472231
2116.  0.7445176
2117.5  0.751202
2119.  0.7661267
2120.5  0.7468063
2122.  0.7192939
2123.5  0.7235045
2125.  0.7459546
2126.5  0.7475013
2128.  0.7500883
2129.5  0.7528561
2131.  0.7521471
2132.5  0.7476921
2134.  0.7480719
2135.5  0.7447187
2137.  0.7387223
2138.5  0.7547404
2140.  0.7333088
2141.5  0.7396751
2143.  0.7635579
2144.5  0.7423377
2146.  0.7157136
2147.5  0.7116593
2149.  0.726526
2150.5  0.7332557
2152.  0.7270703
2153.5  0.7143295
2155.  0.7064816
2156.5  0.7212085
2158.  0.7270748
2159.5  0.7105641
2161.  0.7097832
2162.5  0.7354133
2164.  0.7342486
2165.5  0.719905
2167.  0.7110339
2168.5  0.7034907
2170.  0.7050673
2171.5  0.7170541
2173.  0.7326875
2174.5  0.7399636
2176.  0.7407725
2177.5  0.7408689
2179.  0.7271887
2180.5  0.7085431
2182.  0.7068303
2183.5  0.7188523
2185.  0.721103
2186.5  0.7172056
2188.  0.7135686
2189.5  0.7157817
2191.  0.6996602
2192.5  0.7010464
2194.  0.7224042
2195.5  0.7352443
2197.  0.7325606
2198.5  0.7209489
2200.  0.7146453
2201.5  0.6942151
2203.  0.6815861
2204.5  0.6885248
2206.  0.7011535
2207.5  0.7079972
2209.  0.6942991
2210.5  0.6858708
2212.  0.6905231
2213.5  0.708674
2215.  0.6967164
2216.5  0.667191
2218.  0.6781599
2219.5  0.7010771
2221.  0.6880793
2222.5  0.6767428
2224.  0.6697875
2225.5  0.6683537
2227.  0.6702645
2228.5  0.6680277
2230.  0.6762995
2231.5  0.6914093
2233.  0.6932951
2234.5  0.6914559
2236.  0.687802
2237.5  0.7008887
2239.  0.6766997
2240.5  0.6500396
2242.  0.6638098
2243.5  0.6823693
2245.  0.6678677
2246.5  0.654344
2248.  0.6638238
2249.5  0.6659575
2251.  0.6617995
2252.5  0.660594
2254.  0.6593022
2255.5  0.6529128
2257.  0.6451344
2258.5  0.6450162
2260.  0.6411872
2261.5  0.631259
2263.  0.6356735
2264.5  0.6485055
2266.  0.6529126
2267.5  0.6554173
2269.  0.6650542
2270.5  0.6798335
2272.  0.696749
2273.5  0.6971101
2275.  0.6883902
2276.5  0.6777235
2278.  0.673039
2279.5  0.6606724
2281.  0.6512151
2282.5  0.6592894
2284.  0.6591663
2285.5  0.6681356
2287.  0.6929281
2288.5  0.6882469
2290.  0.6755221
2291.5  0.6751397
2293.  0.6748706
2294.5  0.6698805
2296.  0.6653779
2297.5  0.6633798
2299.  0.6541304
2300.5  0.6624277
2302.  0.6743979
2303.5  0.6794696
2305.  0.6808034
2306.5  0.6854201
2308.  0.6830778
2309.5  0.6862928
2311.  0.6762971
2312.5  0.6565642
2314.  0.657716
2315.5  0.6711746
2317.  0.6696327
2318.5  0.6705695
2320.  0.6748542
2321.5  0.6749725
2323.  0.6823164
2324.5  0.6983262
2326.  0.7152954
2327.5  0.7319332
2329.  0.7186095
2330.5  0.7014349
2332.  0.6785846
2333.5  0.6491317
2335.  0.6324192
2336.5  0.6295454
2338.  0.6133891
2339.5  0.5687834
2341.  0.5217853
2342.5  0.483803
2344.  0.4778077
2345.5  0.5017061
2347.  0.5450585
2348.5  0.5798364
2350.  0.6115859
2351.5  0.6430908
2353.  0.648919
2354.5  0.6358061
2356.  0.6337835
2357.5  0.6523531
2359.  0.6673174
2360.5  0.6748865
2362.  0.6712775
2363.5  0.6662029
2365.  0.6688538
2366.5  0.659725
2368.  0.6438591
2369.5  0.6193725
2371.  0.5854787
2372.5  0.5393357
2374.  0.5129036
2375.5  0.512629
2377.  0.5111178
2378.5  0.4972541
2380.  0.4853441
2381.5  0.47499
2383.  0.479955
2384.5  0.5148995
2386.  0.5491911
2387.5  0.5771297
2389.  0.603959
2390.5  0.6233333
2392.  0.6450474
2393.5  0.6601113
2395.  0.6681798
2396.5  0.6706828
2398.  0.6731602
2399.5  0.6654409
2401.  0.6514235
2402.5  0.6365375
2404.  0.6247092
2405.5  0.6187462
2407.  0.6029797
2408.5  0.5946778
2410.  0.6052943
2411.5  0.6234052
2413.  0.6260854
2414.5  0.623705
2416.  0.6390818
2417.5  0.6581734
2419.  0.6487267
2420.5  0.629885
2422.  0.632214
2423.5  0.6480522
2425.  0.6490727
2426.5  0.6344078
2428.  0.6195881
2429.5  0.6067282
2431.  0.6097572
2432.5  0.6188834
2434.  0.6281781
2435.5  0.6211403
2437.  0.6045665
2438.5  0.6051841
2440.  0.6133946
2441.5  0.6275283
2443.  0.6305494
2444.5  0.6186467
2446.  0.6214471
2447.5  0.6264256
2449.  0.6188025
2450.5  0.6133248
2452.  0.616083
2453.5  0.6209008
2455.  0.6131456
2456.5  0.6125284
2458.  0.6185488
2459.5  0.6222408
2461.  0.6140087
2462.5  0.6078281
2464.  0.627952
2465.5  0.6444679
2467.  0.6488676
2468.5  0.6467315
2470.  0.6586524
2471.5  0.6692023
2473.  0.6555135
2474.5  0.6373914
2476.  0.6399013
2477.5  0.6481145
2479.  0.6398351
2480.5  0.6310803
2482.  0.6253728
2483.5  0.6183265
2485.  0.6160041
2486.5  0.6057696
2488.  0.5942326
2489.5  0.6029878
2491.  0.618041
2492.5  0.6194685
2494.  0.6167653
2495.5  0.6272434
2497.  0.6366409
2498.5  0.6217683
2500.  0.5972707
2501.5  0.6016654
2503.  0.6269139
2504.5  0.6394511
2506.  0.6437654
2507.5  0.6323404
2509.  0.6117989
2510.5  0.602083
2512.  0.6232219
2513.5  0.6413237
2515.  0.6251799
2516.5  0.6047705
2518.  0.5955386
2519.5  0.6006796
2521.  0.6059561
2522.5  0.6082376
2524.  0.6114849
2525.5  0.6003219
2527.  0.5893617
2528.5  0.5983816
2530.  0.6097101
2531.5  0.6101807
2533.  0.6146231
2534.5  0.6156468
2536.  0.6118655
2537.5  0.6013899
2539.  0.5997074
2540.5  0.6004319
2542.  0.5895007
2543.5  0.584756
2545.  0.57764
2546.5  0.572519
2548.  0.5698469
2549.5  0.5776285
2551.  0.5831828
2552.5  0.5857515
2554.  0.5920187
2555.5  0.6024293
2557.  0.6164905
2558.5  0.6238235
2560.  0.6160171
2561.5  0.602675
2563.  0.5950136
2564.5  0.5902355
2566.  0.5884577
2567.5  0.5966541
2569.  0.5948755
2570.5  0.5946355
2572.  0.5817797
2573.5  0.5801368
2575.  0.5830405
2576.5  0.5832904
2578.  0.5765966
2579.5  0.5650103
2581.  0.5392432
2582.5  0.4968598
2584.  0.4605551
2585.5  0.4591603
2587.  0.4699052
2588.5  0.4866678
2590.  0.4983919
2591.5  0.4988095
2593.  0.4900349
2594.5  0.4752095
2596.  0.4586172
2597.5  0.4362864
2599.  0.4237033
2600.5  0.4221566
2602.  0.4344151
2603.5  0.4692354
2605.  0.5128785
2606.5  0.5557534
2608.  0.5843326
2609.5  0.6058629
2611.  0.6097754
2612.5  0.5998107
2614.  0.6039322
2615.5  0.6215486
2617.  0.6249193
2618.5  0.6138602
2620.  0.6212355
2621.5  0.6421119
2623.  0.643273
2624.5  0.6393688
2626.  0.6537827
2627.5  0.6485517
2629.  0.6351486
2630.5  0.6208189
2632.  0.6112487
2633.5  0.6024166
2635.  0.5966495
2636.5  0.6062901
2638.  0.6207209
2639.5  0.6165513
2641.  0.6013256
2642.5  0.5958952
2644.  0.5915927
2645.5  0.5896855
2647.  0.5942603
2648.5  0.6043295
2650.  0.609473
2651.5  0.5971183
2653.  0.5902892
2654.5  0.6073738
2656.  0.6326836
2657.5  0.6265003
2659.  0.5952446
2660.5  0.5766038
2662.  0.5797411
2663.5  0.5775286
2665.  0.56757
2666.5  0.5699694
2668.  0.5726398
2669.5  0.5713539
2671.  0.5670688
2672.5  0.5796816
2674.  0.5984033
2675.5  0.5955758
2677.  0.5834876
2678.5  0.5671163
2680.  0.5551395
2681.5  0.5660632
2683.  0.5769911
2684.5  0.5866422
2686.  0.5877259
2687.5  0.5679059
2689.  0.5532838
2690.5  0.5622017
2692.  0.5724763
2693.5  0.571974
2695.  0.5720574
2696.5  0.5719804
2698.  0.5737381
2699.5  0.5717796
