# ave_Lya_emfa[801][real]: Average spectrum of 142 objects
950.  0.2137098
951.5  0.4585576
953.  0.3831277
954.5  0.3231514
956.  0.5159174
957.5  0.2926848
959.  0.342692
960.5  0.3677801
962.  0.4159978
963.5  0.3981576
965.  0.401838
966.5  0.4450571
968.  0.2686194
969.5  0.2449261
971.  0.3227849
972.5  0.4195807
974.  0.2473444
975.5  0.2156682
977.  0.2273392
978.5  0.294331
980.  0.3760246
981.5  0.3419743
983.  0.5326579
984.5  0.4133446
986.  0.4106236
987.5  0.4112838
989.  0.3401606
990.5  0.4195501
992.  0.4248782
993.5  0.5925371
995.  0.6287084
996.5  0.4940119
998.  0.5415739
999.5  0.6296679
1001.  0.5540994
1002.5  0.5929339
1004.  0.4776724
1005.5  0.5099725
1007.  0.4493423
1008.5  0.5752912
1010.  0.5415751
1011.5  0.5301736
1013.  0.5362025
1014.5  0.4334153
1016.  0.4504485
1017.5  0.4283303
1019.  0.4466603
1020.5  0.4089404
1022.  0.3332429
1023.5  0.2564076
1025.  0.2566685
1026.5  0.2336885
1028.  0.3182339
1029.5  0.3047195
1031.  0.3174867
1032.5  0.3363486
1034.  0.3389016
1035.5  0.5062721
1037.  0.5321016
1038.5  0.5651265
1040.  0.6203049
1041.5  0.7178682
1043.  0.7621688
1044.5  0.8641464
1046.  0.8012969
1047.5  0.8277468
1049.  0.7310937
1050.5  0.7020391
1052.  0.7510191
1053.5  0.7941133
1055.  0.7614172
1056.5  0.7367363
1058.  0.7490097
1059.5  0.7772906
1061.  0.6796013
1062.5  0.6104285
1064.  0.6234811
1065.5  0.6756317
1067.  0.7926345
1068.5  0.8175274
1070.  0.7794921
1071.5  0.6674443
1073.  0.6784356
1074.5  0.7698765
1076.  0.7943332
1077.5  0.7420827
1079.  0.7734486
1080.5  0.8427276
1082.  0.7734114
1083.5  0.6785792
1085.  0.7175811
1086.5  0.7030503
1088.  0.7286662
1089.5  0.7489113
1091.  0.7659678
1092.5  0.8063123
1094.  0.8445943
1095.5  0.7985126
1097.  0.7866203
1098.5  0.6850013
1100.  0.722004
1101.5  0.8044896
1103.  0.7748849
1104.5  0.7798669
1106.  0.7475363
1107.5  0.77468
1109.  0.6443387
1110.5  0.6225748
1112.  0.7045758
1113.5  0.7103754
1115.  0.7366385
1116.5  0.7905841
1118.  0.7829745
1119.5  0.7866587
1121.  0.7806866
1122.5  0.7009847
1124.  0.66868
1125.5  0.676823
1127.  0.6427436
1128.5  0.7005542
1130.  0.7019315
1131.5  0.7398191
1133.  0.7747172
1134.5  0.7822741
1136.  0.7488972
1137.5  0.7009762
1139.  0.7668446
1140.5  0.7770435
1142.  0.6879165
1143.5  0.6873369
1145.  0.7170212
1146.5  0.7407972
1148.  0.7799432
1149.5  0.7956559
1151.  0.7668583
1152.5  0.7915804
1154.  0.8082079
1155.5  0.7671015
1157.  0.775811
1158.5  0.7309021
1160.  0.7272214
1161.5  0.7460806
1163.  0.790135
1164.5  0.7633702
1166.  0.76343
1167.5  0.7846631
1169.  0.7623318
1170.5  0.6839885
1172.  0.6766317
1173.5  0.6613179
1175.  0.6661578
1176.5  0.627518
1178.  0.6534246
1179.5  0.7061679
1181.  0.7135392
1182.5  0.7246395
1184.  0.7736362
1185.5  0.719099
1187.  0.6720314
1188.5  0.5864671
1190.  0.5478522
1191.5  0.5495628
1193.  0.6058013
1194.5  0.654377
1196.  0.6881208
1197.5  0.7498166
1199.  0.7301428
1200.5  0.6409293
1202.  0.564885
1203.5  0.5212935
1205.  0.5204233
1206.5  0.5039137
1208.  0.5001935
1209.5  0.5385358
1211.  0.638916
1212.5  0.9088404
1214.  1.369731
1215.5  1.873641
1217.  2.204491
1218.5  2.212717
1220.  1.823133
1221.5  1.335247
1223.  1.033628
1224.5  0.9163052
1226.  0.903147
1227.5  0.9015651
1229.  0.8631805
1230.5  0.8615048
1232.  0.9087272
1233.5  0.9358488
1235.  0.9208841
1236.5  0.9104665
1238.  0.9154061
1239.5  0.9211391
1241.  0.984133
1242.5  1.01151
1244.  1.054125
1245.5  1.060989
1247.  1.026287
1248.5  0.9985107
1250.  1.016189
1251.5  1.016508
1253.  0.9931159
1254.5  0.9919263
1256.  0.9650816
1257.5  0.9138256
1259.  0.8584866
1260.5  0.8157192
1262.  0.8928621
1263.5  1.029028
1265.  1.086223
1266.5  1.104538
1268.  1.108633
1269.5  1.082723
1271.  1.060715
1272.5  1.057401
1274.  1.063771
1275.5  1.058775
1277.  1.061111
1278.5  1.040182
1280.  1.054877
1281.5  1.083162
1283.  1.120591
1284.5  1.067986
1286.  1.075205
1287.5  1.089766
1289.  1.114278
1290.5  1.091528
1292.  1.060024
1293.5  1.061774
1295.  1.022961
1296.5  0.9716846
1298.  0.9330029
1299.5  0.8567531
1301.  0.7901297
1302.5  0.7729887
1304.  0.7943043
1305.5  0.9019538
1307.  1.068297
1308.5  1.142945
1310.  1.133535
1311.5  1.130152
1313.  1.114622
1314.5  1.120582
1316.  1.081439
1317.5  1.041894
1319.  1.044935
1320.5  1.060163
1322.  1.068563
1323.5  1.080262
1325.  1.004379
1326.5  1.014307
1328.  1.0602
1329.5  1.007737
1331.  0.9349395
1332.5  0.8696569
1334.  0.8359035
1335.5  0.8442899
1337.  0.9211409
1338.5  1.005735
1340.  1.032285
1341.5  1.027373
1343.  1.042847
1344.5  1.049857
1346.  1.076548
1347.5  1.079325
1349.  1.073537
1350.5  1.045194
1352.  1.02156
1353.5  1.056129
1355.  1.10034
1356.5  1.093309
1358.  1.073718
1359.5  1.039561
1361.  1.04677
1362.5  1.044362
1364.  1.048962
1365.5  0.9966027
1367.  0.9725708
1368.5  1.031542
1370.  1.059853
1371.5  1.050934
1373.  1.069896
1374.5  1.053808
1376.  1.025551
1377.5  1.009429
1379.  1.006515
1380.5  1.024187
1382.  1.018528
1383.5  0.9972177
1385.  1.010314
1386.5  1.017072
1388.  0.9688417
1389.5  0.8906463
1391.  0.8418334
1392.5  0.7854066
1394.  0.7618841
1395.5  0.8059309
1397.  0.8564656
1398.5  0.8794436
1400.  0.9022428
1401.5  0.886346
1403.  0.8670987
1404.5  0.8922504
1406.  0.95754
1407.5  1.011318
1409.  0.9982694
1410.5  0.9961838
1412.  0.9959577
1413.5  0.9898461
1415.  0.9997939
1416.5  0.9916385
1418.  1.013065
1419.5  1.009967
1421.  0.9810843
1422.5  0.9926655
1424.  0.9761817
1425.5  0.9528905
1427.  0.9321648
1428.5  0.9374802
1430.  0.9301036
1431.5  0.9563096
1433.  0.9870319
1434.5  1.001627
1436.  1.011982
1437.5  1.008238
1439.  0.9826584
1440.5  1.000763
1442.  1.030021
1443.5  1.020365
1445.  1.009175
1446.5  1.009363
1448.  1.009789
1449.5  1.005675
1451.  0.993078
1452.5  0.9738826
1454.  0.9668196
1455.5  0.9875429
1457.  1.040003
1458.5  1.009231
1460.  0.9748369
1461.5  0.9920419
1463.  0.9808567
1464.5  0.9485596
1466.  0.9604039
1467.5  0.9744136
1469.  0.9604555
1470.5  0.9519409
1472.  0.9637778
1473.5  0.9600602
1475.  0.9597408
1476.5  0.9639657
1478.  0.9805707
1479.5  0.9753811
1481.  0.9702044
1482.5  1.007125
1484.  0.9840403
1485.5  0.9875818
1487.  1.006229
1488.5  0.9832178
1490.  0.9660342
1491.5  0.9776629
1493.  1.009229
1494.5  0.9616801
1496.  0.9131662
1497.5  0.9478328
1499.  0.9505242
1500.5  0.9227557
1502.  0.927254
1503.5  0.9484597
1505.  0.9622245
1506.5  0.9542405
1508.  0.9691775
1509.5  0.9402335
1511.  0.9296584
1512.5  0.9434461
1514.  0.9355292
1515.5  0.9502764
1517.  0.9546567
1518.5  0.947124
1520.  0.9213985
1521.5  0.9090066
1523.  0.8357415
1524.5  0.7972676
1526.  0.7558396
1527.5  0.7481244
1529.  0.7823641
1530.5  0.8520388
1532.  0.8852531
1533.5  0.8714161
1535.  0.8841861
1536.5  0.8759866
1538.  0.8732378
1539.5  0.8376074
1541.  0.7879429
1542.5  0.7593467
1544.  0.7275258
1545.5  0.6702904
1547.  0.5857679
1548.5  0.573157
1550.  0.6539595
1551.5  0.7472331
1553.  0.8631991
1554.5  0.9602158
1556.  0.9510837
1557.5  0.8979459
1559.  0.8896339
1560.5  0.8853168
1562.  0.8973658
1563.5  0.8842623
1565.  0.8682192
1566.5  0.8555759
1568.  0.869487
1569.5  0.8450235
1571.  0.8722565
1572.5  0.9137097
1574.  0.9155672
1575.5  0.8917831
1577.  0.9007728
1578.5  0.8645948
1580.  0.8536897
1581.5  0.8993975
1583.  0.8816403
1584.5  0.9093339
1586.  0.9039509
1587.5  0.8887891
1589.  0.8735197
1590.5  0.8772616
1592.  0.9092865
1593.5  0.924133
1595.  0.897876
1596.5  0.9013073
1598.  0.918295
1599.5  0.9032954
1601.  0.8993993
1602.5  0.8658161
1604.  0.8067993
1605.5  0.7795247
1607.  0.767715
1608.5  0.7478087
1610.  0.7297099
1611.5  0.7794782
1613.  0.8194479
1614.5  0.8450082
1616.  0.8832725
1617.5  0.866675
1619.  0.8868211
1620.5  0.8792347
1622.  0.8329571
1623.5  0.8302398
1625.  0.8395224
1626.5  0.8388718
1628.  0.8375521
1629.5  0.8512888
1631.  0.8784448
1632.5  0.8851502
1634.  0.8953879
1635.5  0.8941439
1637.  0.8863713
1638.5  0.9175523
1640.  0.9569764
1641.5  0.9331884
1643.  0.9401408
1644.5  0.9495482
1646.  0.9223358
1647.5  0.8913029
1649.  0.8699757
1650.5  0.8473146
1652.  0.8083169
1653.5  0.8578269
1655.  0.8899098
1656.5  0.8596435
1658.  0.8568837
1659.5  0.8851
1661.  0.8720356
1662.5  0.8583996
1664.  0.8739021
1665.5  0.8568432
1667.  0.813163
1668.5  0.7339298
1670.  0.6697499
1671.5  0.7125825
1673.  0.7603123
1674.5  0.7882606
1676.  0.8323857
1677.5  0.8459634
1679.  0.8499916
1680.5  0.8710008
1682.  0.8785086
1683.5  0.881265
1685.  0.8907362
1686.5  0.8638042
1688.  0.8505532
1689.5  0.8639331
1691.  0.8535483
1692.5  0.8528254
1694.  0.8459567
1695.5  0.8434471
1697.  0.8267666
1698.5  0.8089069
1700.  0.8010787
1701.5  0.7868597
1703.  0.7917325
1704.5  0.8031828
1706.  0.8149035
1707.5  0.785098
1709.  0.7332332
1710.5  0.7511054
1712.  0.8142014
1713.5  0.8081073
1715.  0.7483884
1716.5  0.7522084
1718.  0.752133
1719.5  0.744545
1721.  0.7565565
1722.5  0.7557821
1724.  0.7448374
1725.5  0.7769141
1727.  0.8265932
1728.5  0.8193403
1730.  0.7942282
1731.5  0.81602
1733.  0.8251342
1734.5  0.8182716
1736.  0.8025331
1737.5  0.8030868
1739.  0.7834008
1740.5  0.7572023
1742.  0.7712404
1743.5  0.7623513
1745.  0.7826974
1746.5  0.7884187
1748.  0.7816294
1749.5  0.7721766
1751.  0.7739782
1752.5  0.7569026
1754.  0.7436565
1755.5  0.7782369
1757.  0.8128273
1758.5  0.8270666
1760.  0.8104127
1761.5  0.7822219
1763.  0.7643859
1764.5  0.7398763
1766.  0.7306232
1767.5  0.7558177
1769.  0.7786827
1770.5  0.7627942
1772.  0.7660928
1773.5  0.7192885
1775.  0.6932544
1776.5  0.7479712
1778.  0.7733444
1779.5  0.7712142
1781.  0.7760609
1782.5  0.7825982
1784.  0.7896274
1785.5  0.7999452
1787.  0.8012959
1788.5  0.7716016
1790.  0.7541201
1791.5  0.7582601
1793.  0.7337509
1794.5  0.7400985
1796.  0.770337
1797.5  0.7881034
1799.  0.7667878
1800.5  0.7418117
1802.  0.7475577
1803.5  0.7644414
1805.  0.754968
1806.5  0.751041
1808.  0.7476788
1809.5  0.7390546
1811.  0.7268942
1812.5  0.7159645
1814.  0.7531646
1815.5  0.7863098
1817.  0.7930063
1818.5  0.7652907
1820.  0.763543
1821.5  0.7583541
1823.  0.7640661
1824.5  0.7619604
1826.  0.7384774
1827.5  0.7036133
1829.  0.7304063
1830.5  0.7754354
1832.  0.7727014
1833.5  0.7698171
1835.  0.7938333
1836.5  0.7901453
1838.  0.7636195
1839.5  0.7484851
1841.  0.7074752
1842.5  0.7209121
1844.  0.6943412
1845.5  0.6643003
1847.  0.7037512
1848.5  0.7080873
1850.  0.6869994
1851.5  0.6863425
1853.  0.6572476
1854.5  0.6369848
1856.  0.632922
1857.5  0.6494775
1859.  0.6898933
1860.5  0.6808913
1862.  0.6380377
1863.5  0.636852
1865.  0.644113
1866.5  0.6679581
1868.  0.7089208
1869.5  0.7116699
1871.  0.7177762
1872.5  0.6999333
1874.  0.6825669
1875.5  0.6977038
1877.  0.7164493
1878.5  0.7243434
1880.  0.7559375
1881.5  0.7687106
1883.  0.7245358
1884.5  0.6926491
1886.  0.6828589
1887.5  0.6928512
1889.  0.7129585
1890.5  0.7006179
1892.  0.6901736
1893.5  0.6870288
1895.  0.6816192
1896.5  0.6487668
1898.  0.6421344
1899.5  0.6806034
1901.  0.7155538
1902.5  0.7229297
1904.  0.7447109
1905.5  0.7629773
1907.  0.8006204
1908.5  0.8264782
1910.  0.8075674
1911.5  0.7555591
1913.  0.7177456
1914.5  0.7083107
1916.  0.6985482
1917.5  0.6520541
1919.  0.6171967
1920.5  0.6120515
1922.  0.6341997
1923.5  0.6583393
1925.  0.6456444
1926.5  0.6397853
1928.  0.6351577
1929.5  0.577015
1931.  0.5771832
1932.5  0.6173233
1934.  0.6659182
1935.5  0.7143984
1937.  0.6765615
1938.5  0.6099469
1940.  0.6535339
1941.5  0.6859758
1943.  0.6422855
1944.5  0.6148624
1946.  0.6445969
1947.5  0.6242489
1949.  0.5978667
1950.5  0.6323894
1952.  0.6511655
1953.5  0.6726808
1955.  0.6446772
1956.5  0.6314968
1958.  0.6538301
1959.5  0.6560005
1961.  0.5997483
1962.5  0.5929341
1964.  0.633643
1965.5  0.6340445
1967.  0.6497395
1968.5  0.6661574
1970.  0.6434514
1971.5  0.6517137
1973.  0.6906258
1974.5  0.6772333
1976.  0.6593934
1977.5  0.6439987
1979.  0.654857
1980.5  0.6829206
1982.  0.6632355
1983.5  0.6597537
1985.  0.6295933
1986.5  0.6191496
1988.  0.6076494
1989.5  0.618462
1991.  0.5936482
1992.5  0.5889305
1994.  0.629164
1995.5  0.6252742
1997.  0.6215366
1998.5  0.6131849
2000.  0.6345085
2001.5  0.6337997
2003.  0.6421741
2004.5  0.6577839
2006.  0.6671929
2007.5  0.6887876
2009.  0.6835883
2010.5  0.6002139
2012.  0.5853948
2013.5  0.6227307
2015.  0.6342049
2016.5  0.6316397
2018.  0.6504253
2019.5  0.6374851
2021.  0.6101712
2022.5  0.5790185
2024.  0.6064097
2025.5  0.6548454
2027.  0.6283079
2028.5  0.6233222
2030.  0.6177263
2031.5  0.6189228
2033.  0.6057924
2034.5  0.5910887
2036.  0.5942018
2037.5  0.5765772
2039.  0.5568541
2040.5  0.5576758
2042.  0.5681071
2043.5  0.5815649
2045.  0.6355419
2046.5  0.6451539
2048.  0.607878
2049.5  0.5689321
2051.  0.5874583
2052.5  0.6103641
2054.  0.6191714
2055.5  0.6129481
2057.  0.5975166
2058.5  0.5767899
2060.  0.5587606
2061.5  0.5643748
2063.  0.5964273
2064.5  0.5937901
2066.  0.5717263
2067.5  0.5423427
2069.  0.5610662
2070.5  0.5839889
2072.  0.6013592
2073.5  0.5938419
2075.  0.6122884
2076.5  0.6497811
2078.  0.6457098
2079.5  0.5995948
2081.  0.581731
2082.5  0.6205066
2084.  0.6510366
2085.5  0.6068097
2087.  0.5487226
2088.5  0.5491523
2090.  0.5650944
2091.5  0.5203472
2093.  0.5150359
2094.5  0.6012284
2096.  0.633482
2097.5  0.5981888
2099.  0.5703745
2100.5  0.5841649
2102.  0.6410148
2103.5  0.6385397
2105.  0.6087825
2106.5  0.5921789
2108.  0.5503443
2109.5  0.5544884
2111.  0.6033123
2112.5  0.6409332
2114.  0.6135659
2115.5  0.5564618
2117.  0.5406429
2118.5  0.5385993
2120.  0.5324348
2121.5  0.5579891
2123.  0.5730407
2124.5  0.5979292
2126.  0.636987
2127.5  0.6450402
2129.  0.6013474
2130.5  0.5568749
2132.  0.5695302
2133.5  0.6001378
2135.  0.5965775
2136.5  0.5624938
2138.  0.5567283
2139.5  0.5497566
2141.  0.5570664
2142.5  0.554018
2144.  0.5254619
2145.5  0.5180826
2147.  0.5180511
2148.5  0.5279486
2150.  0.5375902
